Sample Name, 25.75
Time, 2000/00/01 00:00:00
Operator, Windows User
Lamp, 255
Slit,0.0
Scan From, 1100.0nm
Scan To, 190.0nm
Scan Step, 1.0nm
Sample Filter, 5
memo, 
WL(nm), Abs, T%
190.0, 2.7398, 0.18
191.0, 2.8062, 0.16
192.0, 3.3027, 0.05
193.0, 2.8691, 0.14
194.0, 3.0751, 0.08
195.0, 4.1861, 0.01
196.0, 3.0632, 0.09
197.0, 4.0161, 0.01
198.0, 3.1362, 0.07
199.0, 3.3707, 0.04
200.0, 3.5397, 0.03
201.0, 2.8160, 0.15
202.0, 3.9094, 0.01
203.0, 3.2878, 0.05
204.0, 3.7884, 0.02
205.0, 3.5920, 0.03
206.0, 3.3185, 0.05
207.0, 4.0408, 0.01
208.0, 3.5157, 0.03
209.0, 3.5363, 0.03
210.0, 3.8026, 0.02
211.0, 3.4712, 0.03
212.0, 3.7441, 0.02
213.0, 3.8581, 0.01
214.0, 3.6979, 0.02
215.0, 3.8874, 0.01
216.0, 3.7231, 0.02
217.0, 3.5121, 0.03
218.0, 4.0450, 0.01
219.0, 3.5769, 0.03
220.0, 3.6938, 0.02
221.0, 4.2448, 0.01
222.0, 3.7069, 0.02
223.0, 3.8577, 0.01
224.0, 3.8615, 0.01
225.0, 3.5218, 0.03
226.0, 4.0876, 0.01
227.0, 3.7208, 0.02
228.0, 3.6633, 0.02
229.0, 4.2653, 0.01
230.0, 3.6116, 0.02
231.0, 3.8656, 0.01
232.0, 4.0854, 0.01
233.0, 3.6564, 0.02
234.0, 3.9535, 0.01
235.0, 3.9491, 0.01
236.0, 3.6428, 0.02
237.0, 4.0632, 0.01
238.0, 3.6896, 0.02
239.0, 3.5749, 0.03
240.0, 4.2234, 0.01
241.0, 3.6173, 0.02
242.0, 3.8181, 0.02
243.0, 4.0379, 0.01
244.0, 3.6685, 0.02
245.0, 3.8144, 0.02
246.0, 3.8153, 0.02
247.0, 3.4741, 0.03
248.0, 4.0401, 0.01
249.0, 3.6161, 0.02
250.0, 3.6754, 0.02
251.0, 4.0448, 0.01
252.0, 3.5683, 0.03
253.0, 3.5683, 0.03
254.0, 3.9197, 0.01
255.0, 3.6171, 0.02
256.0, 4.2166, 0.01
257.0, 3.6694, 0.02
258.0, 3.6072, 0.02
259.0, 3.9035, 0.01
260.0, 3.8010, 0.02
261.0, 3.5904, 0.03
262.0, 4.4866, 0.00
263.0, 3.4376, 0.04
264.0, 3.8690, 0.01
265.0, 3.8611, 0.01
266.0, 3.4552, 0.04
267.0, 4.1464, 0.01
268.0, 3.7408, 0.02
269.0, 3.5863, 0.03
270.0, 3.9468, 0.01
271.0, 3.5717, 0.03
272.0, 3.5649, 0.03
273.0, 3.8025, 0.02
274.0, 3.4967, 0.03
275.0, 3.7938, 0.02
276.0, 3.5479, 0.03
277.0, 3.4362, 0.04
278.0, 3.9115, 0.01
279.0, 3.6088, 0.02
280.0, 3.4312, 0.04
281.0, 4.3843, 0.00
282.0, 3.4803, 0.03
283.0, 3.5373, 0.03
284.0, 3.9044, 0.01
285.0, 3.3804, 0.04
286.0, 4.0782, 0.01
287.0, 3.9012, 0.01
288.0, 3.5324, 0.03
289.0, 4.0763, 0.01
290.0, 3.5990, 0.03
291.0, 3.5988, 0.03
292.0, 3.7751, 0.02
293.0, 3.5318, 0.03
294.0, 3.5984, 0.03
295.0, 3.7736, 0.02
296.0, 3.4202, 0.04
297.0, 3.8959, 0.01
298.0, 3.5925, 0.03
299.0, 3.4136, 0.04
300.0, 4.0642, 0.01
301.0, 3.4590, 0.03
302.0, 3.4556, 0.04
303.0, 3.8782, 0.01
304.0, 3.4481, 0.04
305.0, 3.5690, 0.03
306.0, 3.8661, 0.01
307.0, 3.4356, 0.04
308.0, 4.0334, 0.01
309.0, 3.6307, 0.02
310.0, 3.4212, 0.04
311.0, 4.0183, 0.01
312.0, 3.4690, 0.03
313.0, 4.3093, 0.00
314.0, 3.4542, 0.04
315.0, 3.3909, 0.04
316.0, 3.9880, 0.01
317.0, 3.4704, 0.03
318.0, 3.6247, 0.02
319.0, 3.7953, 0.02
320.0, 3.3128, 0.05
321.0, 3.6599, 0.02
322.0, 3.6026, 0.02
323.0, 3.4048, 0.04
324.0, 4.0681, 0.01
325.0, 3.3923, 0.04
326.0, 3.4171, 0.04
327.0, 3.8247, 0.01
328.0, 3.2862, 0.05
329.0, 3.6650, 0.02
330.0, 3.8041, 0.02
331.0, 3.2406, 0.06
332.0, 3.7100, 0.02
333.0, 3.4012, 0.04
334.0, 3.3272, 0.05
335.0, 3.9895, 0.01
336.0, 3.3804, 0.04
337.0, 3.4529, 0.04
338.0, 3.9688, 0.01
339.0, 3.1844, 0.07
340.0, 3.7755, 0.02
341.0, 3.1463, 0.07
342.0, 3.1891, 0.06
343.0, 3.6763, 0.02
344.0, 3.0841, 0.08
345.0, 3.2576, 0.06
346.0, 3.6113, 0.02
347.0, 3.2078, 0.06
348.0, 3.4889, 0.03
349.0, 3.3465, 0.05
350.0, 3.1821, 0.07
351.0, 3.8926, 0.01
352.0, 3.2353, 0.06
353.0, 3.2483, 0.06
354.0, 3.9289, 0.01
355.0, 3.2109, 0.06
356.0, 3.5195, 0.03
357.0, 3.6499, 0.02
358.0, 3.1764, 0.07
359.0, 3.6561, 0.02
360.0, 3.2586, 0.06
361.0, 3.2872, 0.05
362.0, 3.9537, 0.01
363.0, 3.2800, 0.05
364.0, 3.4651, 0.03
365.0, 3.7114, 0.02
366.0, 3.2230, 0.06
367.0, 3.4826, 0.03
368.0, 3.5238, 0.03
369.0, 3.0696, 0.09
370.0, 2.8974, 0.13
371.0, 3.7688, 0.02
372.0, 3.5617, 0.03
373.0, 3.3725, 0.04
374.0, 3.9892, 0.01
375.0, 3.5272, 0.03
376.0, 3.4756, 0.03
377.0, 4.0353, 0.01
378.0, 3.3520, 0.04
379.0, 3.7649, 0.02
380.0, 4.0806, 0.01
381.0, 3.5506, 0.03
382.0, 3.9320, 0.01
383.0, 3.8209, 0.02
384.0, 3.4820, 0.03
385.0, 3.8467, 0.01
386.0, 3.6159, 0.02
387.0, 3.6270, 0.02
388.0, 4.0061, 0.01
389.0, 3.6501, 0.02
390.0, 4.5056, 0.00
391.0, 3.6079, 0.02
392.0, 3.7446, 0.02
393.0, 3.6306, 0.02
394.0, 3.6407, 0.02
395.0, 3.9513, 0.01
396.0, 3.7843, 0.02
397.0, 3.5712, 0.03
398.0, 3.9774, 0.01
399.0, 3.6846, 0.02
400.0, 3.8173, 0.02
401.0, 4.3023, 0.00
402.0, 3.6110, 0.02
403.0, 3.8401, 0.01
404.0, 3.8472, 0.01
405.0, 3.8535, 0.01
406.0, 4.3367, 0.00
407.0, 3.8656, 0.01
408.0, 3.8711, 0.01
409.0, 4.3535, 0.00
410.0, 3.8812, 0.01
411.0, 3.7609, 0.02
412.0, 4.0666, 0.01
413.0, 3.5945, 0.03
414.0, 4.0762, 0.01
415.0, 3.9044, 0.01
416.0, 3.6862, 0.02
417.0, 4.3884, 0.00
418.0, 3.9143, 0.01
419.0, 3.7920, 0.02
420.0, 4.0954, 0.01
421.0, 3.7963, 0.02
422.0, 3.9228, 0.01
423.0, 4.1001, 0.01
424.0, 3.9249, 0.01
425.0, 3.8006, 0.02
426.0, 4.1022, 0.01
427.0, 3.8014, 0.02
428.0, 3.9264, 0.01
429.0, 3.6249, 0.02
430.0, 3.6241, 0.02
431.0, 3.9238, 0.01
432.0, 3.4451, 0.04
433.0, 3.4942, 0.03
434.0, 3.3952, 0.04
435.0, 3.2466, 0.06
436.0, 3.3108, 0.05
437.0, 3.1827, 0.07
438.0, 3.0446, 0.09
439.0, 3.0568, 0.09
440.0, 2.9272, 0.12
441.0, 2.8503, 0.14
442.0, 2.8065, 0.16
443.0, 2.7026, 0.20
444.0, 2.6951, 0.20
445.0, 2.6243, 0.24
446.0, 2.5535, 0.28
447.0, 2.5234, 0.30
448.0, 2.4623, 0.34
449.0, 2.4105, 0.39
450.0, 2.3731, 0.42
451.0, 2.2903, 0.51
452.0, 2.2402, 0.58
453.0, 2.2024, 0.63
454.0, 2.1604, 0.69
455.0, 2.1305, 0.74
456.0, 2.0915, 0.81
457.0, 2.0549, 0.88
458.0, 2.0293, 0.93
459.0, 1.9949, 1.01
460.0, 1.9642, 1.09
461.0, 1.9391, 1.15
462.0, 1.9076, 1.24
463.0, 1.8865, 1.30
464.0, 1.8605, 1.38
465.0, 1.8340, 1.47
466.0, 1.8146, 1.53
467.0, 1.7924, 1.61
468.0, 1.7736, 1.68
469.0, 1.7583, 1.74
470.0, 1.7386, 1.83
471.0, 1.7201, 1.90
472.0, 1.7066, 1.97
473.0, 1.6873, 2.05
474.0, 1.6691, 2.14
475.0, 1.6540, 2.22
476.0, 1.6371, 2.31
477.0, 1.6256, 2.37
478.0, 1.6134, 2.44
479.0, 1.5978, 2.52
480.0, 1.5917, 2.56
481.0, 1.5766, 2.65
482.0, 1.5663, 2.71
483.0, 1.5578, 2.77
484.0, 1.5463, 2.84
485.0, 1.5382, 2.90
486.0, 1.5285, 2.96
487.0, 1.5205, 3.02
488.0, 1.5122, 3.08
489.0, 1.5033, 3.14
490.0, 1.4981, 3.18
491.0, 1.4890, 3.24
492.0, 1.4811, 3.30
493.0, 1.4734, 3.36
494.0, 1.4668, 3.41
495.0, 1.4611, 3.46
496.0, 1.4549, 3.51
497.0, 1.4478, 3.57
498.0, 1.4428, 3.61
499.0, 1.4373, 3.65
500.0, 1.4304, 3.71
501.0, 1.4261, 3.75
502.0, 1.4209, 3.79
503.0, 1.4172, 3.83
504.0, 1.4135, 3.86
505.0, 1.4086, 3.90
506.0, 1.4045, 3.94
507.0, 1.4009, 3.97
508.0, 1.3964, 4.01
509.0, 1.3941, 4.04
510.0, 1.3903, 4.07
511.0, 1.3850, 4.12
512.0, 1.3828, 4.14
513.0, 1.3794, 4.17
514.0, 1.3760, 4.21
515.0, 1.3736, 4.23
516.0, 1.3689, 4.28
517.0, 1.3672, 4.29
518.0, 1.3645, 4.32
519.0, 1.3615, 4.35
520.0, 1.3590, 4.37
521.0, 1.3569, 4.40
522.0, 1.3539, 4.43
523.0, 1.3523, 4.44
524.0, 1.3489, 4.48
525.0, 1.3476, 4.49
526.0, 1.3468, 4.50
527.0, 1.3444, 4.52
528.0, 1.3429, 4.54
529.0, 1.3417, 4.55
530.0, 1.3402, 4.57
531.0, 1.3390, 4.58
532.0, 1.3369, 4.60
533.0, 1.3352, 4.62
534.0, 1.3339, 4.64
535.0, 1.3316, 4.66
536.0, 1.3297, 4.68
537.0, 1.3283, 4.70
538.0, 1.3280, 4.70
539.0, 1.3266, 4.71
540.0, 1.3255, 4.73
541.0, 1.3234, 4.75
542.0, 1.3238, 4.74
543.0, 1.3232, 4.75
544.0, 1.3220, 4.76
545.0, 1.3214, 4.77
546.0, 1.3197, 4.79
547.0, 1.3181, 4.81
548.0, 1.3177, 4.81
549.0, 1.3162, 4.83
550.0, 1.3163, 4.83
551.0, 1.3162, 4.83
552.0, 1.3153, 4.84
553.0, 1.3147, 4.84
554.0, 1.3131, 4.86
555.0, 1.3120, 4.88
556.0, 1.3113, 4.88
557.0, 1.3090, 4.91
558.0, 1.3068, 4.93
559.0, 1.3056, 4.95
560.0, 1.3040, 4.97
561.0, 1.3046, 4.96
562.0, 1.3040, 4.97
563.0, 1.3024, 4.98
564.0, 1.3025, 4.98
565.0, 1.3013, 5.00
566.0, 1.3006, 5.00
567.0, 1.3001, 5.01
568.0, 1.2997, 5.02
569.0, 1.2987, 5.03
570.0, 1.2985, 5.03
571.0, 1.2974, 5.04
572.0, 1.2969, 5.05
573.0, 1.2959, 5.06
574.0, 1.2944, 5.08
575.0, 1.2948, 5.07
576.0, 1.2938, 5.08
577.0, 1.2928, 5.10
578.0, 1.2929, 5.09
579.0, 1.2923, 5.10
580.0, 1.2936, 5.09
581.0, 1.2932, 5.09
582.0, 1.2924, 5.10
583.0, 1.2923, 5.10
584.0, 1.2921, 5.10
585.0, 1.2915, 5.11
586.0, 1.2806, 5.24
587.0, 1.2810, 5.24
588.0, 1.2804, 5.24
589.0, 1.2798, 5.25
590.0, 1.2800, 5.25
591.0, 1.2799, 5.25
592.0, 1.2797, 5.25
593.0, 1.2791, 5.26
594.0, 1.2777, 5.28
595.0, 1.2771, 5.28
596.0, 1.2766, 5.29
597.0, 1.2749, 5.31
598.0, 1.2750, 5.31
599.0, 1.2741, 5.32
600.0, 1.2730, 5.33
601.0, 1.2739, 5.32
602.0, 1.2717, 5.35
603.0, 1.2715, 5.35
604.0, 1.2711, 5.36
605.0, 1.2704, 5.37
606.0, 1.2699, 5.37
607.0, 1.2692, 5.38
608.0, 1.2690, 5.38
609.0, 1.2685, 5.39
610.0, 1.2676, 5.40
611.0, 1.2677, 5.40
612.0, 1.2670, 5.41
613.0, 1.2669, 5.41
614.0, 1.2664, 5.42
615.0, 1.2664, 5.41
616.0, 1.2659, 5.42
617.0, 1.2651, 5.43
618.0, 1.2640, 5.44
619.0, 1.2637, 5.45
620.0, 1.2633, 5.45
621.0, 1.2630, 5.46
622.0, 1.2627, 5.46
623.0, 1.2623, 5.47
624.0, 1.2620, 5.47
625.0, 1.2621, 5.47
626.0, 1.2609, 5.48
627.0, 1.2608, 5.49
628.0, 1.2609, 5.48
629.0, 1.2607, 5.49
630.0, 1.2599, 5.50
631.0, 1.2597, 5.50
632.0, 1.2589, 5.51
633.0, 1.2592, 5.51
634.0, 1.2583, 5.52
635.0, 1.2580, 5.52
636.0, 1.2576, 5.53
637.0, 1.2566, 5.54
638.0, 1.2567, 5.54
639.0, 1.2561, 5.55
640.0, 1.2561, 5.55
641.0, 1.2561, 5.55
642.0, 1.2557, 5.55
643.0, 1.2548, 5.56
644.0, 1.2539, 5.57
645.0, 1.2539, 5.57
646.0, 1.2536, 5.58
647.0, 1.2535, 5.58
648.0, 1.2527, 5.59
649.0, 1.2524, 5.59
650.0, 1.2525, 5.59
651.0, 1.2514, 5.61
652.0, 1.2520, 5.60
653.0, 1.2522, 5.60
654.0, 1.2508, 5.61
655.0, 1.2506, 5.62
656.0, 1.2492, 5.63
657.0, 1.2491, 5.64
658.0, 1.2488, 5.64
659.0, 1.2482, 5.65
660.0, 1.2483, 5.65
661.0, 1.2475, 5.66
662.0, 1.2468, 5.67
663.0, 1.2467, 5.67
664.0, 1.2467, 5.67
665.0, 1.2466, 5.67
666.0, 1.2453, 5.68
667.0, 1.2447, 5.69
668.0, 1.2445, 5.70
669.0, 1.2444, 5.70
670.0, 1.2436, 5.71
671.0, 1.2431, 5.71
672.0, 1.2430, 5.71
673.0, 1.2423, 5.72
674.0, 1.2419, 5.73
675.0, 1.2414, 5.74
676.0, 1.2413, 5.74
677.0, 1.2411, 5.74
678.0, 1.2397, 5.76
679.0, 1.2392, 5.77
680.0, 1.2388, 5.77
681.0, 1.2379, 5.78
682.0, 1.2380, 5.78
683.0, 1.2374, 5.79
684.0, 1.2367, 5.80
685.0, 1.2371, 5.79
686.0, 1.2359, 5.81
687.0, 1.2353, 5.82
688.0, 1.2356, 5.81
689.0, 1.2351, 5.82
690.0, 1.2340, 5.83
691.0, 1.2337, 5.84
692.0, 1.2330, 5.85
693.0, 1.2333, 5.84
694.0, 1.2319, 5.86
695.0, 1.2310, 5.87
696.0, 1.2311, 5.87
697.0, 1.2302, 5.89
698.0, 1.2299, 5.89
699.0, 1.2298, 5.89
700.0, 1.2285, 5.91
701.0, 1.2287, 5.91
702.0, 1.2281, 5.91
703.0, 1.2274, 5.92
704.0, 1.2275, 5.92
705.0, 1.2264, 5.94
706.0, 1.2262, 5.94
707.0, 1.2264, 5.94
708.0, 1.2253, 5.95
709.0, 1.2253, 5.95
710.0, 1.2251, 5.96
711.0, 1.2245, 5.96
712.0, 1.2244, 5.96
713.0, 1.2241, 5.97
714.0, 1.2232, 5.98
715.0, 1.2226, 5.99
716.0, 1.2218, 6.00
717.0, 1.2217, 6.00
718.0, 1.2211, 6.01
719.0, 1.2208, 6.01
720.0, 1.2203, 6.02
721.0, 1.2204, 6.02
722.0, 1.2197, 6.03
723.0, 1.2196, 6.03
724.0, 1.2197, 6.03
725.0, 1.2189, 6.04
726.0, 1.2189, 6.04
727.0, 1.2184, 6.05
728.0, 1.2180, 6.05
729.0, 1.2180, 6.05
730.0, 1.2173, 6.06
731.0, 1.2170, 6.07
732.0, 1.2174, 6.06
733.0, 1.2164, 6.08
734.0, 1.2164, 6.08
735.0, 1.2161, 6.08
736.0, 1.2156, 6.09
737.0, 1.2153, 6.09
738.0, 1.2142, 6.11
739.0, 1.2142, 6.11
740.0, 1.2136, 6.11
741.0, 1.2131, 6.12
742.0, 1.2133, 6.12
743.0, 1.2130, 6.12
744.0, 1.2122, 6.13
745.0, 1.2123, 6.13
746.0, 1.2118, 6.14
747.0, 1.2111, 6.15
748.0, 1.2119, 6.14
749.0, 1.2109, 6.15
750.0, 1.2107, 6.16
751.0, 1.2105, 6.16
752.0, 1.2095, 6.17
753.0, 1.2101, 6.16
754.0, 1.2098, 6.17
755.0, 1.2087, 6.19
756.0, 1.2088, 6.18
757.0, 1.2081, 6.19
758.0, 1.2075, 6.20
759.0, 1.2081, 6.19
760.0, 1.2075, 6.20
761.0, 1.2070, 6.21
762.0, 1.2072, 6.21
763.0, 1.2062, 6.22
764.0, 1.2063, 6.22
765.0, 1.2057, 6.23
766.0, 1.2057, 6.23
767.0, 1.2059, 6.22
768.0, 1.2052, 6.23
769.0, 1.2044, 6.25
770.0, 1.2049, 6.24
771.0, 1.2041, 6.25
772.0, 1.2041, 6.25
773.0, 1.2046, 6.24
774.0, 1.2034, 6.26
775.0, 1.2035, 6.26
776.0, 1.2026, 6.27
777.0, 1.2023, 6.28
778.0, 1.2025, 6.27
779.0, 1.2017, 6.28
780.0, 1.2005, 6.30
781.0, 1.2012, 6.29
782.0, 1.2001, 6.31
783.0, 1.2011, 6.29
784.0, 1.2011, 6.29
785.0, 1.2002, 6.31
786.0, 1.1998, 6.31
787.0, 1.1997, 6.31
788.0, 1.1988, 6.33
789.0, 1.1991, 6.32
790.0, 1.1987, 6.33
791.0, 1.1973, 6.35
792.0, 1.1961, 6.37
793.0, 1.1968, 6.36
794.0, 1.1967, 6.36
795.0, 1.1960, 6.37
796.0, 1.1961, 6.37
797.0, 1.1962, 6.36
798.0, 1.1951, 6.38
799.0, 1.1949, 6.38
800.0, 1.1947, 6.39
801.0, 1.1939, 6.40
802.0, 1.1944, 6.39
803.0, 1.1937, 6.40
804.0, 1.1934, 6.41
805.0, 1.1937, 6.40
806.0, 1.1933, 6.41
807.0, 1.1932, 6.41
808.0, 1.1931, 6.41
809.0, 1.1930, 6.41
810.0, 1.1928, 6.41
811.0, 1.1920, 6.43
812.0, 1.1916, 6.43
813.0, 1.1923, 6.42
814.0, 1.1911, 6.44
815.0, 1.1905, 6.45
816.0, 1.1911, 6.44
817.0, 1.1897, 6.46
818.0, 1.1905, 6.45
819.0, 1.1901, 6.45
820.0, 1.1896, 6.46
821.0, 1.1902, 6.45
822.0, 1.1893, 6.47
823.0, 1.1890, 6.47
824.0, 1.1896, 6.46
825.0, 1.1882, 6.48
826.0, 1.1877, 6.49
827.0, 1.1885, 6.48
828.0, 1.1874, 6.49
829.0, 1.1873, 6.50
830.0, 1.1874, 6.50
831.0, 1.1868, 6.50
832.0, 1.1876, 6.49
833.0, 1.1877, 6.49
834.0, 1.1873, 6.50
835.0, 1.1873, 6.50
836.0, 1.1858, 6.52
837.0, 1.1856, 6.52
838.0, 1.1855, 6.52
839.0, 1.1842, 6.54
840.0, 1.1851, 6.53
841.0, 1.1848, 6.53
842.0, 1.1841, 6.55
843.0, 1.1845, 6.54
844.0, 1.1847, 6.54
845.0, 1.1846, 6.54
846.0, 1.1852, 6.53
847.0, 1.1836, 6.55
848.0, 1.1835, 6.55
849.0, 1.1836, 6.55
850.0, 1.1829, 6.56
851.0, 1.1932, 6.41
852.0, 1.1928, 6.42
853.0, 1.1928, 6.42
854.0, 1.1930, 6.41
855.0, 1.1927, 6.42
856.0, 1.1926, 6.42
857.0, 1.1931, 6.41
858.0, 1.1926, 6.42
859.0, 1.1925, 6.42
860.0, 1.1917, 6.43
861.0, 1.1914, 6.44
862.0, 1.1910, 6.44
863.0, 1.1910, 6.44
864.0, 1.1906, 6.45
865.0, 1.1905, 6.45
866.0, 1.1906, 6.45
867.0, 1.1903, 6.45
868.0, 1.1911, 6.44
869.0, 1.1906, 6.45
870.0, 1.1910, 6.44
871.0, 1.1905, 6.45
872.0, 1.1899, 6.46
873.0, 1.1896, 6.46
874.0, 1.1893, 6.47
875.0, 1.1896, 6.46
876.0, 1.1887, 6.48
877.0, 1.1885, 6.48
878.0, 1.1882, 6.48
879.0, 1.1884, 6.48
880.0, 1.1882, 6.48
881.0, 1.1888, 6.47
882.0, 1.1883, 6.48
883.0, 1.1881, 6.48
884.0, 1.1879, 6.49
885.0, 1.1876, 6.49
886.0, 1.1870, 6.50
887.0, 1.1867, 6.51
888.0, 1.1869, 6.50
889.0, 1.1865, 6.51
890.0, 1.1861, 6.51
891.0, 1.1862, 6.51
892.0, 1.1865, 6.51
893.0, 1.1867, 6.51
894.0, 1.1869, 6.50
895.0, 1.1862, 6.51
896.0, 1.1855, 6.52
897.0, 1.1851, 6.53
898.0, 1.1845, 6.54
899.0, 1.1840, 6.55
900.0, 1.1840, 6.55
901.0, 1.1838, 6.55
902.0, 1.1836, 6.55
903.0, 1.1836, 6.55
904.0, 1.1837, 6.55
905.0, 1.1844, 6.54
906.0, 1.1846, 6.54
907.0, 1.1837, 6.55
908.0, 1.1831, 6.56
909.0, 1.1831, 6.56
910.0, 1.1825, 6.57
911.0, 1.1825, 6.57
912.0, 1.1823, 6.57
913.0, 1.1821, 6.58
914.0, 1.1821, 6.58
915.0, 1.1815, 6.58
916.0, 1.1820, 6.58
917.0, 1.1819, 6.58
918.0, 1.1817, 6.58
919.0, 1.1812, 6.59
920.0, 1.1803, 6.60
921.0, 1.1795, 6.61
922.0, 1.1802, 6.60
923.0, 1.1798, 6.61
924.0, 1.1794, 6.62
925.0, 1.1792, 6.62
926.0, 1.1792, 6.62
927.0, 1.1792, 6.62
928.0, 1.1793, 6.62
929.0, 1.1792, 6.62
930.0, 1.1791, 6.62
931.0, 1.1791, 6.62
932.0, 1.1785, 6.63
933.0, 1.1783, 6.63
934.0, 1.1772, 6.65
935.0, 1.1774, 6.65
936.0, 1.1773, 6.65
937.0, 1.1766, 6.66
938.0, 1.1765, 6.66
939.0, 1.1762, 6.66
940.0, 1.1763, 6.66
941.0, 1.1765, 6.66
942.0, 1.1764, 6.66
943.0, 1.1777, 6.64
944.0, 1.1755, 6.68
945.0, 1.1744, 6.69
946.0, 1.1743, 6.69
947.0, 1.1749, 6.69
948.0, 1.1738, 6.70
949.0, 1.1743, 6.69
950.0, 1.1736, 6.70
951.0, 1.1738, 6.70
952.0, 1.1731, 6.71
953.0, 1.1737, 6.70
954.0, 1.1733, 6.71
955.0, 1.1735, 6.71
956.0, 1.1722, 6.73
957.0, 1.1717, 6.73
958.0, 1.1708, 6.75
959.0, 1.1706, 6.75
960.0, 1.1704, 6.75
961.0, 1.1701, 6.76
962.0, 1.1698, 6.76
963.0, 1.1699, 6.76
964.0, 1.1702, 6.76
965.0, 1.1708, 6.75
966.0, 1.1709, 6.75
967.0, 1.1706, 6.75
968.0, 1.1692, 6.77
969.0, 1.1693, 6.77
970.0, 1.1688, 6.78
971.0, 1.1689, 6.78
972.0, 1.1668, 6.81
973.0, 1.1669, 6.81
974.0, 1.1669, 6.81
975.0, 1.1669, 6.81
976.0, 1.1673, 6.80
977.0, 1.1674, 6.80
978.0, 1.1671, 6.81
979.0, 1.1666, 6.81
980.0, 1.1657, 6.83
981.0, 1.1651, 6.84
982.0, 1.1649, 6.84
983.0, 1.1644, 6.85
984.0, 1.1646, 6.85
985.0, 1.1639, 6.86
986.0, 1.1637, 6.86
987.0, 1.1638, 6.86
988.0, 1.1635, 6.86
989.0, 1.1642, 6.85
990.0, 1.1644, 6.85
991.0, 1.1640, 6.85
992.0, 1.1638, 6.86
993.0, 1.1630, 6.87
994.0, 1.1620, 6.89
995.0, 1.1623, 6.88
996.0, 1.1615, 6.89
997.0, 1.1613, 6.90
998.0, 1.1610, 6.90
999.0, 1.1605, 6.91
1000.0, 1.1605, 6.91
1001.0, 1.1614, 6.90
1002.0, 1.1603, 6.91
1003.0, 1.1602, 6.92
1004.0, 1.1599, 6.92
1005.0, 1.1592, 6.93
1006.0, 1.1590, 6.93
1007.0, 1.1589, 6.94
1008.0, 1.1581, 6.95
1009.0, 1.1579, 6.95
1010.0, 1.1577, 6.96
1011.0, 1.1579, 6.95
1012.0, 1.1585, 6.94
1013.0, 1.1578, 6.95
1014.0, 1.1588, 6.94
1015.0, 1.1577, 6.95
1016.0, 1.1556, 6.99
1017.0, 1.1547, 7.00
1018.0, 1.1534, 7.02
1019.0, 1.1537, 7.02
1020.0, 1.1534, 7.03
1021.0, 1.1529, 7.03
1022.0, 1.1534, 7.02
1023.0, 1.1525, 7.04
1024.0, 1.1531, 7.03
1025.0, 1.1537, 7.02
1026.0, 1.1523, 7.04
1027.0, 1.1532, 7.03
1028.0, 1.1518, 7.05
1029.0, 1.1513, 7.06
1030.0, 1.1511, 7.06
1031.0, 1.1506, 7.07
1032.0, 1.1499, 7.08
1033.0, 1.1502, 7.08
1034.0, 1.1499, 7.08
1035.0, 1.1501, 7.08
1036.0, 1.1503, 7.07
1037.0, 1.1488, 7.10
1038.0, 1.1496, 7.09
1039.0, 1.1488, 7.10
1040.0, 1.1479, 7.11
1041.0, 1.1483, 7.11
1042.0, 1.1466, 7.14
1043.0, 1.1463, 7.14
1044.0, 1.1470, 7.13
1045.0, 1.1456, 7.15
1046.0, 1.1455, 7.15
1047.0, 1.1457, 7.15
1048.0, 1.1435, 7.19
1049.0, 1.1452, 7.16
1050.0, 1.1435, 7.19
1051.0, 1.1445, 7.17
1052.0, 1.1439, 7.18
1053.0, 1.1427, 7.20
1054.0, 1.1433, 7.19
1055.0, 1.1419, 7.21
1056.0, 1.1418, 7.21
1057.0, 1.1424, 7.20
1058.0, 1.1403, 7.24
1059.0, 1.1410, 7.23
1060.0, 1.1414, 7.22
1061.0, 1.1401, 7.24
1062.0, 1.1413, 7.22
1063.0, 1.1396, 7.25
1064.0, 1.1391, 7.26
1065.0, 1.1405, 7.24
1066.0, 1.1380, 7.28
1067.0, 1.1378, 7.28
1068.0, 1.1392, 7.26
1069.0, 1.1363, 7.31
1070.0, 1.1380, 7.28
1071.0, 1.1374, 7.29
1072.0, 1.1366, 7.30
1073.0, 1.1387, 7.27
1074.0, 1.1367, 7.30
1075.0, 1.1363, 7.31
1076.0, 1.1404, 7.24
1077.0, 1.1330, 7.36
1078.0, 1.1344, 7.34
1079.0, 1.1316, 7.39
1080.0, 1.1325, 7.37
1081.0, 1.1335, 7.35
1082.0, 1.1301, 7.41
1083.0, 1.1327, 7.37
1084.0, 1.1335, 7.35
1085.0, 1.1329, 7.36
1086.0, 1.1362, 7.31
1087.0, 1.1352, 7.32
1088.0, 1.1334, 7.36
1089.0, 1.1347, 7.33
1090.0, 1.1305, 7.40
1091.0, 1.1318, 7.38
1092.0, 1.1333, 7.36
1093.0, 1.1302, 7.41
1094.0, 1.1333, 7.36
1095.0, 1.1355, 7.32
1096.0, 1.1414, 7.22
1097.0, 1.1542, 7.01
1098.0, 1.1514, 7.06
1099.0, 1.1464, 7.14
1100.0, 1.1494, 7.09
